* Sea-Bird SBE 19plus V2 Data File:
* FileName = D:\ACEX_ctd\brutos\MCTV029.hex
* Software Version Seasave V 7.17
* Temperature SN = 6161
* Conductivity SN = 6161
* System UpLoad Time = Jun 19 2012 19:05:49
** H38 
** NHo Cruzeiro do Sul 
** 222 
** MCT V 
**   029
**   33 41.49 S
**   051 45.26 W
**   19/06/2012 22:05 Z
**   60
** 9P46375-0882 
**   Ct Fernandes
# nquan = 14
# nvalues = 56                          
# units = specified
# name 0 = scan: Scan Count
# name 1 = timeJ: Julian Days
# name 2 = dz/dtM: Descent Rate [m/s]
# name 3 = prdM: Pressure, Strain Gauge [db]
# name 4 = tv290C: Temperature [ITS-90, deg C]
# name 5 = c0S/m: Conductivity [S/m]
# name 6 = depSM: Depth [salt water, m]
# name 7 = oxsatML/L: Oxygen Saturation [ml/l]
# name 8 = flSP: Fluorescence, Seapoint
# name 9 = potemp090C: Potential Temperature [ITS-90, deg C]
# name 10 = sal00: Salinity [PSU]
# name 11 = density00: Density [density, Kg/m^3]
# name 12 = oxsatML/L: Oxygen Saturation [ml/l]
# name 13 = flag: flag
# span 0 =        553,       1426       
# span 1 = 171.797303, 171.799827       
# span 2 =     -0.009,      0.710       
# span 3 =      1.175,     56.192       
# span 4 =    14.6102,    15.1047       
# span 5 =   4.095065,   4.217213       
# span 6 =      1.000,     56.000       
# span 7 =    5.70349,    5.78417       
# span 8 = 1.7727e-01, 1.5471e+00       
# span 9 =    14.6092,    15.0962       
# span 10 =    33.5345,    34.2066      
# span 11 =  1024.9173,  1025.5868      
# span 12 =    5.70345,    5.78418      
# span 13 = 0.0000e+00, 0.0000e+00      
# interval = meters: 1                  
# start_time = Jun 19 2012 19:05:49
# bad_flag = -9.990e-29
# sensor 0 = Frequency 0  temperature, 6161, 21-Oct-08
# sensor 1 = Frequency 1  conductivity, 6161, 21-Oct-08, cpcor = -9.5700e-08
# sensor 2 = Pressure Number
# sensor 3 = Extrnl Volt  0  Fluorometer, Seapoint, primary
# sensor 4 = Extrnl Volt  2  altimeter
# datcnv_date = Jun 20 2012 15:29:56, 7.17
# datcnv_in = D:\ACEX_ctd\brutos\MCTV029.hex D:\ACEX_ctd\arqconfig\AC6161.con
# datcnv_skipover = 1
# filter_date = Jun 20 2012 15:30:07, 7.17
# filter_in = D:\ACEX_ctd\dat cnv\MCTV029.cnv
# filter_low_pass_tc_A = 1.000
# filter_low_pass_tc_B = 0.150
# filter_low_pass_A_vars = prdM flSP
# filter_low_pass_B_vars = c0S/m
# alignctd_date = Jun 20 2012 15:30:24, 7.17
# alignctd_in = D:\ACEX_ctd\filter\MCTV029.cnv
# alignctd_adv = c0S/m -0.010                                                                                                                                                                                                        
# wildedit_date = Jun 20 2012 15:30:36, 7.17
# wildedit_in = D:\ACEX_ctd\align\MCTV029.cnv
# wildedit_pass1_nstd = 2.0
# wildedit_pass2_nstd = 20.0
# wildedit_pass2_mindelta = 1.000e+002
# wildedit_npoint = 1000
# wildedit_vars = dz/dtM prdM tv290C c0S/m oxsatML/L flSP
# wildedit_excl_bad_scans = yes
# celltm_date = Jun 20 2012 15:31:14, 7.17
# celltm_in = D:\ACEX_ctd\wildedit\MCTV029.cnv
# celltm_alpha = 0.0300, 0.0000
# celltm_tau = 7.0000, 0.0000
# celltm_temp_sensor_use_for_cond = primary, 
# loopedit_date = Jun 20 2012 15:31:30, 7.17
# loopedit_in = D:\ACEX_ctd\celltm\MCTV029.cnv
# loopedit_minVelocity = 0.250                                                                                            
# loopedit_surfaceSoak: minDepth = 5.0, maxDepth = 20, useDeckPress = 1                                                   
# loopedit_excl_bad_scans = yes
# Derive_date = Jun 20 2012 15:31:40, 7.17
# Derive_in = D:\ACEX_ctd\loopedit\MCTV029.cnv C:\Documents and Settings\Coleta\Desktop\Nova pasta\6161.con
# binavg_date = Jun 20 2012 15:32:18, 7.17
# binavg_in = D:\ACEX_ctd\derive\MCTV029.cnv
# binavg_bintype = meters
# binavg_binsize = 1
# binavg_excl_bad_scans = yes
# binavg_skipover = 0
# binavg_surface_bin = no, min = 0.000, max = 0.000, value = 0.000
# split_date = Jun 20 2012 15:33:53, 7.17
# split_in = D:\ACEX_ctd\binavg\MCTV029.cnv
# split_excl_bad_scans = yes
# file_type = ascii
*END*
        553 171.797303     -0.009      1.175    14.7008   4.103108      1.000    5.77362 1.3441e+00    14.7007    33.5414  1024.9173    5.77364 0.0000e+00
        571 171.797355      0.328      1.996    14.6640   4.098903      2.000    5.77821 1.4076e+00    14.6637    33.5345  1024.9235    5.77821 0.0000e+00
        588 171.797406      0.373      3.053    14.6197   4.095392      3.000    5.78318 1.3493e+00    14.6193    33.5402  1024.9421    5.78320 0.0000e+00
        597 171.797430      0.465      3.939    14.6165   4.095423      4.000    5.78341 1.2242e+00    14.6160    33.5429  1024.9488    5.78348 0.0000e+00
        618 171.797491      0.277      5.081    14.6164   4.095314      5.000    5.78352 1.4267e+00    14.6157    33.5416  1024.9529    5.78354 0.0000e+00
        629 171.797523      0.430      6.012    14.6113   4.095065      6.000    5.78406 1.3086e+00    14.6104    33.5433  1024.9595    5.78408 0.0000e+00
        642 171.797560      0.302      7.008    14.6102   4.095073      7.000    5.78417 1.2989e+00    14.6092    33.5439  1024.9646    5.78418 0.0000e+00
        661 171.797614      0.225      8.103    14.6142   4.095594      8.000    5.78368 1.5046e+00    14.6130    33.5449  1024.9694    5.78369 0.0000e+00
        672 171.797649      0.426      9.057    14.6161   4.095744      9.000    5.78348 1.5077e+00    14.6148    33.5442  1024.9727    5.78348 0.0000e+00
        680 171.797672      0.557      9.881    14.6158   4.095726     10.000    5.78353 1.5363e+00    14.6144    33.5439  1024.9762    5.78353 0.0000e+00
        702 171.797735      0.308     11.057    14.6121   4.095435     11.000    5.78396 1.5471e+00    14.6104    33.5441  1024.9824    5.78396 0.0000e+00
        717 171.797779      0.248     12.112    14.6128   4.095618     12.000    5.78385 1.5360e+00    14.6110    33.5447  1024.9874    5.78385 0.0000e+00
        729 171.797811      0.369     13.035    14.6163   4.096019     13.000    5.78343 1.5029e+00    14.6144    33.5449  1024.9910    5.78343 0.0000e+00
        747 171.797865      0.244     14.138    14.6178   4.096132     14.000    5.78328 1.4803e+00    14.6157    33.5443  1024.9950    5.78328 0.0000e+00
        759 171.797898      0.412     15.065    14.6175   4.096114     15.000    5.78333 1.4198e+00    14.6153    33.5440  1024.9990    5.78333 0.0000e+00
        772 171.797936      0.307     16.058    14.6165   4.096025     16.000    5.78345 1.4142e+00    14.6142    33.5436  1025.0034    5.78345 0.0000e+00
        792 171.797995      0.290     17.211    14.6195   4.096555     17.000    5.78304 1.2896e+00    14.6170    33.5454  1025.0092    5.78304 0.0000e+00
        798 171.798012      0.600     17.975    14.6207   4.096743     18.000    5.78289 1.3243e+00    14.6180    33.5458  1025.0127    5.78289 0.0000e+00
        820 171.798075      0.299     19.158    14.6213   4.096820     19.000    5.78283 1.2110e+00    14.6185    33.5456  1025.0176    5.78283 0.0000e+00
        831 171.798107      0.439     20.093    14.6231   4.097131     20.000    5.78258 1.2046e+00    14.6202    33.5464  1025.0221    5.78258 0.0000e+00
        844 171.798144      0.365     21.051    14.6246   4.097399     21.000    5.78238 1.2327e+00    14.6215    33.5472  1025.0267    5.78238 0.0000e+00
        862 171.798199      0.231     22.195    14.6294   4.098166     22.000    5.78173 1.1938e+00    14.6261    33.5496  1025.0326    5.78173 0.0000e+00
        872 171.798227      0.456     23.134    14.6354   4.099592     23.000    5.78077 1.1698e+00    14.6320    33.5571  1025.0412    5.78076 0.0000e+00
        882 171.798255      0.405     24.095    14.6468   4.101204     24.000    5.77927 1.1902e+00    14.6432    33.5616  1025.0465    5.77926 0.0000e+00
        895 171.798292      0.306     25.140    14.6518   4.102091     25.000    5.77856 1.1714e+00    14.6482    33.5649  1025.0527    5.77855 0.0000e+00
        908 171.798331      0.296     26.194    14.6650   4.104249     26.000    5.77674 1.1479e+00    14.6612    33.5729  1025.0606    5.77672 0.0000e+00
        917 171.798356      0.484     27.136    14.6724   4.105897     27.000    5.77559 1.1072e+00    14.6684    33.5811  1025.0696    5.77556 0.0000e+00
        927 171.798385      0.428     28.080    14.6835   4.110581     28.000    5.77311 1.1014e+00    14.6794    33.6139  1025.0967    5.77310 0.0000e+00
        944 171.798435      0.280     29.269    14.7003   4.115448     29.000    5.77011 9.5160e-01    14.6960    33.6433  1025.1211    5.77009 0.0000e+00
        951 171.798455      0.512     30.106    14.7237   4.121792     30.000    5.76606 8.5409e-01    14.7192    33.6807  1025.1486    5.76604 0.0000e+00
        963 171.798490      0.272     31.213    14.7733   4.135278     31.000    5.75749 6.5349e-01    14.7687    33.7603  1025.2042    5.75744 0.0000e+00
        974 171.798522      0.338     32.166    14.7819   4.141122     32.000    5.75488 5.3940e-01    14.7771    33.8057  1025.2416    5.75483 0.0000e+00
        987 171.798560      0.333     33.234    14.7617   4.141793     33.000    5.75637 4.2224e-01    14.7568    33.8289  1025.2685    5.75636 0.0000e+00
        996 171.798586      0.438     34.140    14.7539   4.142637     34.000    5.75678 3.8552e-01    14.7488    33.8431  1025.2852    5.75678 0.0000e+00
       1010 171.798627      0.246     35.241    14.7376   4.145888     35.000    5.75713 3.0630e-01    14.7324    33.8865  1025.3271    5.75714 0.0000e+00
       1021 171.798656      0.424     36.210    14.7219   4.149156     36.000    5.75743 2.3539e-01    14.7166    33.9297  1025.3680    5.75744 0.0000e+00
       1032 171.798688      0.363     37.187    14.7283   4.154538     37.000    5.75516 2.1981e-01    14.7228    33.9728  1025.4043    5.75517 0.0000e+00
       1046 171.798730      0.313     38.321    14.7485   4.161517     38.000    5.75120 2.0462e-01    14.7428    34.0185  1025.4402    5.75121 0.0000e+00
       1052 171.798746      0.626     39.076    14.7752   4.165874     39.000    5.74756 1.9778e-01    14.7694    34.0346  1025.4501    5.74753 0.0000e+00
       1069 171.798797      0.222     40.325    14.8067   4.170177     40.000    5.74351 1.9224e-01    14.8007    34.0458  1025.4575    5.74348 0.0000e+00
       1077 171.798820      0.458     41.189    14.8201   4.171697     41.000    5.74190 1.8300e-01    14.8140    34.0476  1025.4599    5.74186 0.0000e+00
       1090 171.798858      0.266     42.268    14.8374   4.174553     42.000    5.73952 1.7727e-01    14.8311    34.0581  1025.4690    5.73949 0.0000e+00
       1100 171.798887      0.456     43.201    14.8554   4.176836     43.000    5.73727 1.8159e-01    14.8490    34.0628  1025.4728    5.73723 0.0000e+00
       1113 171.798924      0.289     44.245    14.8613   4.177623     44.000    5.73652 1.7816e-01    14.8547    34.0644  1025.4774    5.73649 0.0000e+00
       1127 171.798964      0.294     45.316    14.8730   4.179729     45.000    5.73485 1.7781e-01    14.8663    34.0729  1025.4862    5.73484 0.0000e+00
       1136 171.798989      0.475     46.307    14.8777   4.180315     46.000    5.73428 1.8143e-01    14.8708    34.0738  1025.4902    5.73426 0.0000e+00
       1149 171.799028      0.372     47.296    14.8701   4.179549     47.000    5.73518 1.8285e-01    14.8631    34.0730  1025.4957    5.73517 0.0000e+00
       1162 171.799064      0.626     48.293    14.8610   4.178620     48.000    5.73626 1.8877e-01    14.8538    34.0721  1025.5014    5.73625 0.0000e+00
       1168 171.799082      0.710     49.157    14.8552   4.178204     49.000    5.73689 1.9241e-01    14.8479    34.0731  1025.5072    5.73689 0.0000e+00
       1188 171.799141      0.271     50.347    14.8575   4.179257     50.000    5.73637 1.8341e-01    14.8500    34.0802  1025.5175    5.73638 0.0000e+00
       1222 171.799239      0.510     51.194    14.8703   4.181258     51.000    5.73466 1.8929e-01    14.8627    34.0868  1025.5236    5.73466 0.0000e+00
       1335 171.799567      0.280     52.344    14.8741   4.181928     52.000    5.73413 1.8978e-01    14.8663    34.0892  1025.5297    5.73413 0.0000e+00
       1339 171.799577      0.353     53.283    14.8857   4.183998     53.000    5.73250 1.9311e-01    14.8778    34.0975  1025.5377    5.73250 0.0000e+00
       1354 171.799621      0.515     54.160    14.8951   4.185495     54.000    5.73126 1.9325e-01    14.8871    34.1025  1025.5435    5.73123 0.0000e+00
 -9.990e-29 -9.990e-29 -9.990e-29 -9.990e-29 -9.990e-29 -9.990e-29     55.000 -9.990e-29 -9.990e-29 -9.990e-29 -9.990e-29 -9.990e-29 -9.990e-29 -9.990e-29
       1426 171.799827      0.280     56.192    15.1047   4.217213     56.000    5.70349 2.0135e-01    15.0962    34.2066  1025.5868    5.70345 0.0000e+00
