* Sea-Bird SBE 9 Data File:
* FileName = D:\ACEX\brutos\MCTV008.hex
* Software Version Seasave V 7.17
* Temperature SN = 4821
* Conductivity SN = 3367
* Number of Bytes Per Scan = 21
* Number of Voltage Words = 3
* Number of Scans Averaged by the Deck Unit = 1
* System UpLoad Time = Jun 13 2012 21:57:10
** H38 
** NHo Cruzeiro do Sul 
** 222 
** MCTV ACEx 
**   008
**   26 59.840 S
**   047 41.63 W
**   14/06/2012 00:55Z
**   95
** 9P46375-0882 
**   1T Oliveira Santos
# nquan = 16
# nvalues = 90                          
# units = specified
# name 0 = scan: Scan Count
# name 1 = timeJ: Julian Days
# name 2 = dz/dtM: Descent Rate [m/s]
# name 3 = prDM: Pressure, Digiquartz [db]
# name 4 = t090C: Temperature [ITS-90, deg C]
# name 5 = c0S/m: Conductivity [S/m]
# name 6 = sbeox0V: Oxygen Voltage, SBE 43
# name 7 = depSM: Depth [salt water, m]
# name 8 = flSP: Fluorescence, Seapoint
# name 9 = potemp090C: Potential Temperature [ITS-90, deg C]
# name 10 = sal00: Salinity [PSU]
# name 11 = density00: Density [density, Kg/m^3]
# name 12 = sigma-é00: Density [sigma-theta, Kg/m^3]
# name 13 = sbeox0ML/L: Oxygen, SBE 43 [ml/l], WS = 2
# name 14 = nbin: number of scans per bin
# name 15 = flag: flag
# span 0 =       6585,      11238       
# span 1 = 165.917874, 165.920118       
# span 2 =     -1.686,     -0.156       
# span 3 =      1.007,     90.607       
# span 4 =    18.6796,    21.1026       
# span 5 =   4.522617,   5.103305       
# span 6 =     2.9328,     3.5624       
# span 7 =      1.000,     90.000       
# span 8 = 1.6897e-01, 1.5144e+00       
# span 9 =    18.6781,    21.0876       
# span 10 =    33.8099,    36.5772      
# span 11 =  1024.1774,  1026.4702      
# span 12 =    24.1731,    26.0787      
# span 13 =    3.85734,    4.99429      
# span 14 =         13,         54      
# span 15 = 0.0000e+00, 0.0000e+00      
# interval = meters: 1                  
# start_time = Jun 13 2012 21:57:10
# bad_flag = -9.990e-29
# sensor 0 = Frequency  0  temperature, 4821, 05-sep-07
# sensor 1 = Frequency  1  conductivity, 3367, 05-mar-08, cpcor = -9.5700e-08
# sensor 2 = Frequency  2  pressure, 106018, 28-sep-07
# sensor 3 = Extrnl Volt  0  Oxygen, SBE, primary, 0802, 30-nov-07
# sensor 4 = Extrnl Volt  2  Fluorometer, Seapoint, primary
# sensor 5 = Extrnl Volt  4  altimeter
# datcnv_date = Jun 13 2012 22:15:48, 7.17
# datcnv_in = D:\ACEX\brutos\MCTV008.hex D:\ACEX\arqconfig\AC0882mod2.con
# datcnv_skipover = 1857
# filter_date = Jun 13 2012 22:16:10, 7.17
# filter_in = D:\ACEX\dat cnv\MCTV008.cnv
# filter_low_pass_tc_A = 0.150
# filter_low_pass_tc_B = 0.000
# filter_low_pass_A_vars = prDM
# filter_low_pass_B_vars = c0S/m
# alignctd_date = Jun 13 2012 22:16:28, 7.17
# alignctd_in = D:\ACEX\filter\MCTV008.cnv
# alignctd_adv = c0S/m 0.073, sbeox0V 2.000                                                                                                                                                                                          
# wildedit_date = Jun 13 2012 22:16:56, 7.17
# wildedit_in = D:\ACEX\align\MCTV008.cnv
# wildedit_pass1_nstd = 2.0
# wildedit_pass2_nstd = 20.0
# wildedit_pass2_mindelta = 1.000e+002
# wildedit_npoint = 1000
# wildedit_vars = dz/dtM prDM t090C c0S/m sbeox0V flSP
# wildedit_excl_bad_scans = yes
# celltm_date = Jun 13 2012 22:17:16, 7.17
# celltm_in = D:\ACEX\wildedit\MCTV008.cnv
# celltm_alpha = 0.0300, 0.0000
# celltm_tau = 7.0000, 0.0000
# celltm_temp_sensor_use_for_cond = primary, 
# loopedit_date = Jun 13 2012 22:17:34, 7.17
# loopedit_in = D:\ACEX\celltm\MCTV008.cnv
# loopedit_minVelocity = 0.250                                                                                            
# loopedit_surfaceSoak: minDepth = 5.0, maxDepth = 20, useDeckPress = 1                                                   
# loopedit_excl_bad_scans = yes
# Derive_date = Jun 13 2012 22:18:19, 7.17
# Derive_in = D:\ACEX\loopedit\MCTV008.cnv D:\ACEX\arqconfig\AC0882.con
# derive_time_window_docdt = seconds: 2
# binavg_date = Jun 13 2012 22:18:35, 7.17
# binavg_in = D:\ACEX\derive\MCTV008.cnv
# binavg_bintype = meters
# binavg_binsize = 1
# binavg_excl_bad_scans = yes
# binavg_skipover = 0
# binavg_surface_bin = no, min = 0.000, max = 0.000, value = 0.000
# split_date = Jun 13 2012 22:18:50, 7.17
# split_in = D:\ACEX\binavg\MCTV008.cnv
# split_excl_bad_scans = yes
# file_type = ascii
*END*
       6585 165.917874     -0.315     90.607    19.1077   4.874261     2.9328     90.000 1.7281e-01    19.0914    36.4139  1026.4702    26.0787    3.85734         50 0.0000e+00
       7296 165.918217     -0.494     89.599    19.3890   4.906223     2.9524     89.000 1.7192e-01    19.3727    36.4353  1026.4089    26.0222    3.87058         34 0.0000e+00
       7304 165.918221     -0.744     88.595    19.4717   4.915610     2.9614     88.000 1.7669e-01    19.4555    36.4417  1026.3877    26.0054    3.87952         28 0.0000e+00
       7331 165.918234     -0.876     87.585    19.5838   4.929335     2.9722     87.000 1.7390e-01    19.5677    36.4583  1026.3666    25.9888    3.88935         25 0.0000e+00
       7355 165.918246     -0.947     86.580    19.7586   4.949346     2.9874     86.000 1.6897e-01    19.7426    36.4724  1026.3267    25.9535    3.90247         26 0.0000e+00
       7380 165.918257     -0.990     85.576    19.9992   4.978895     3.0096     85.000 1.7456e-01    19.9832    36.5077  1026.2853    25.9168    3.92211         23 0.0000e+00
       7405 165.918270     -0.973     84.568    20.2468   5.005395     3.0265     84.000 1.8780e-01    20.2309    36.5113  1026.2173    25.8534    3.93308         27 0.0000e+00
       7432 165.918283     -0.918     83.561    20.4181   5.027108     3.0432     83.000 1.7803e-01    20.4023    36.5413  1026.1896    25.8303    3.94812         26 0.0000e+00
       7462 165.918297     -0.841     82.554    20.6828   5.056482     3.0721     82.000 1.8414e-01    20.6670    36.5529  1026.1221    25.7675    3.97751         32 0.0000e+00
       7492 165.918312     -0.804     81.549    20.8173   5.071484     3.0928     81.000 1.9442e-01    20.8017    36.5593  1026.0859    25.7358    4.00216         31 0.0000e+00
       7525 165.918328     -0.733     80.536    20.8801   5.078920     3.1124     80.000 1.9438e-01    20.8646    36.5660  1026.0694    25.7237    4.02985         29 0.0000e+00
       7550 165.918340     -0.829     79.519    21.0199   5.095098     3.1483     79.000 1.9521e-01    21.0045    36.5772  1026.0352    25.6940    4.07902         19 0.0000e+00
       7568 165.918348     -1.091     78.533    21.0985   5.103305     3.1893     78.000 2.0896e-01    21.0833    36.5764  1026.0086    25.6717    4.14117         18 0.0000e+00
       7588 165.918358     -1.289     77.521    21.1026   5.101645     3.2327     77.000 2.3751e-01    21.0876    36.5599  1025.9905    25.6580    4.21301         21 0.0000e+00
       7608 165.918368     -1.222     76.513    21.0822   5.095054     3.2777     76.000 2.5231e-01    21.0674    36.5245  1025.9648    25.6365    4.28962         20 0.0000e+00
       7629 165.918378     -1.168     75.505    21.0141   5.080418     3.3130     75.000 3.0791e-01    20.9995    36.4650  1025.9339    25.6099    4.35457         23 0.0000e+00
       7652 165.918389     -1.099     74.504    20.8789   5.058088     3.3454     74.000 3.3666e-01    20.8646    36.4004  1025.9175    25.5975    4.42011         25 0.0000e+00
       7684 165.918404     -0.850     73.496    20.8507   5.053454     3.3690     73.000 3.8609e-01    20.8366    36.3874  1025.9109    25.5952    4.46147         39 0.0000e+00
       7728 165.918426     -0.533     72.481    20.7847   5.041044     3.3853     72.000 3.6097e-01    20.7708    36.3436  1025.8912    25.5798    4.49449         41 0.0000e+00
       7761 165.918442     -0.675     71.472    20.7254   5.030438     3.3963     71.000 3.7388e-01    20.7117    36.3087  1025.8764    25.5692    4.51791         27 0.0000e+00
       7785 165.918453     -0.889     70.458    20.6756   5.019880     3.4031     70.000 3.6526e-01    20.6622    36.2659  1025.8528    25.5500    4.53370         21 0.0000e+00
       7802 165.918461     -1.125     69.466    20.5815   5.003094     3.4089     69.000 3.5977e-01    20.5683    36.2101  1025.8316    25.5330    4.55179         16 0.0000e+00
       7820 165.918470     -1.339     68.456    20.5537   4.998900     3.4159     68.000 3.9564e-01    20.5408    36.2001  1025.8271    25.5327    4.56557         19 0.0000e+00
       7838 165.918478     -1.379     67.453    20.5456   4.997217     3.4179     67.000 3.9469e-01    20.5328    36.1937  1025.8201    25.5300    4.56913         18 0.0000e+00
       7857 165.918488     -1.316     66.447    20.5215   4.992147     3.4184     66.000 4.0509e-01    20.5090    36.1733  1025.8067    25.5209    4.57174         20 0.0000e+00
       7879 165.918498     -1.210     65.444    20.4959   4.988099     3.4220     65.000 4.0630e-01    20.4836    36.1626  1025.8010    25.5195    4.57954         25 0.0000e+00
       7910 165.918513     -0.893     64.430    20.5041   4.989051     3.4244     64.000 4.1942e-01    20.4919    36.1637  1025.7953    25.5181    4.58231         34 0.0000e+00
       7948 165.918531     -0.649     63.420    20.4981   4.984269     3.4292     63.000 4.5218e-01    20.4861    36.1302  1025.7670    25.4942    4.59120         41 0.0000e+00
       7982 165.918548     -0.628     62.410    20.5068   4.980895     3.4310     62.000 4.5778e-01    20.4950    36.0957  1025.7340    25.4655    4.59382         24 0.0000e+00
       8005 165.918559     -0.914     61.413    20.5174   4.980122     3.4264     61.000 5.1129e-01    20.5058    36.0807  1025.7153    25.4511    4.58492         24 0.0000e+00
       8029 165.918570     -1.029     60.403    20.5198   4.979617     3.4238     60.000 4.8325e-01    20.5084    36.0749  1025.7058    25.4460    4.57988         23 0.0000e+00
       8054 165.918583     -1.009     59.399    20.5196   4.978998     3.4210     59.000 5.3429e-01    20.5084    36.0704  1025.6981    25.4426    4.57474         27 0.0000e+00
       8090 165.918600     -0.729     58.392    20.5183   4.978511     3.4217     58.000 5.6399e-01    20.5073    36.0679  1025.6922    25.4410    4.57544         47 0.0000e+00
       8141 165.918625     -0.441     57.374    20.5156   4.977549     3.4230     57.000 5.3123e-01    20.5048    36.0627  1025.6845    25.4377    4.57744         44 0.0000e+00
       8171 165.918639     -0.652     56.365    20.4775   4.966338     3.4183     56.000 5.3283e-01    20.4669    36.0042  1025.6458    25.4032    4.57356         22 0.0000e+00
       8190 165.918648     -1.024     55.352    20.4456   4.959155     3.4171     55.000 5.1894e-01    20.4351    35.9732  1025.6264    25.3881    4.57426         15 0.0000e+00
       8204 165.918655     -1.310     54.360    20.4415   4.954846     3.4142     54.000 5.0797e-01    20.4313    35.9418  1025.5993    25.3653    4.56985         13 0.0000e+00
       8218 165.918662     -1.577     53.367    20.4110   4.945345     3.4078     53.000 5.0731e-01    20.4009    35.8907  1025.5642    25.3344    4.56230         15 0.0000e+00
       8234 165.918669     -1.686     52.353    20.3888   4.940447     3.3954     52.000 5.6807e-01    20.3789    35.8699  1025.5499    25.3245    4.54311         18 0.0000e+00
       8253 165.918679     -1.447     51.342    20.3836   4.939222     3.3784     51.000 5.9595e-01    20.3740    35.8646  1025.5429    25.3218    4.51443         19 0.0000e+00
       8275 165.918689     -1.217     50.338    20.3848   4.938338     3.3603     50.000 5.9554e-01    20.3754    35.8568  1025.5322    25.3154    4.48337         24 0.0000e+00
       8298 165.918701     -1.067     49.325    20.4015   4.937823     3.3250     49.000 5.5944e-01    20.3922    35.8388  1025.5096    25.2972    4.42243         24 0.0000e+00
       8321 165.918712     -1.042     48.320    20.4161   4.934071     3.2714     48.000 5.8224e-01    20.4071    35.7962  1025.4688    25.2607    4.33145         23 0.0000e+00
       8344 165.918723     -1.056     47.310    20.4110   4.931285     3.2276     47.000 5.6833e-01    20.4021    35.7781  1025.4520    25.2483    4.25784         21 0.0000e+00
       8365 165.918733     -1.094     46.305    20.3938   4.926396     3.2009     46.000 5.5527e-01    20.3851    35.7532  1025.4333    25.2339    4.21418         21 0.0000e+00
       8385 165.918742     -1.177     45.298    20.3766   4.921677     3.1819     45.000 5.5587e-01    20.3681    35.7297  1025.4156    25.2205    4.18348         19 0.0000e+00
       8404 165.918752     -1.226     44.295    20.3669   4.918732     3.1693     44.000 5.2038e-01    20.3586    35.7142  1025.4020    25.2112    4.16262         21 0.0000e+00
       8426 165.918762     -1.192     43.288    20.3583   4.916247     3.1594     43.000 5.2486e-01    20.3502    35.7015  1025.3902    25.2038    4.14628         22 0.0000e+00
       8449 165.918773     -1.078     42.283    20.3487   4.913139     3.1506     42.000 5.1658e-01    20.3407    35.6847  1025.3756    25.1934    4.13210         25 0.0000e+00
       8477 165.918787     -0.945     41.277    20.3356   4.909573     3.1374     41.000 5.0567e-01    20.3278    35.6670  1025.3613    25.1834    4.11070         30 0.0000e+00
       8508 165.918801     -0.800     40.262    20.3089   4.901216     3.1226     40.000 4.9988e-01    20.3014    35.6216  1025.3294    25.1559    4.08815         29 0.0000e+00
       8534 165.918814     -0.844     39.258    20.2150   4.876441     3.1015     39.000 3.9082e-01    20.2077    35.4987  1025.2563    25.0871    4.06156         23 0.0000e+00
       8556 165.918825     -1.006     38.248    20.1787   4.867144     3.0860     38.000 3.3049e-01    20.1715    35.4536  1025.2273    25.0624    4.03842         20 0.0000e+00
       8576 165.918835     -1.127     37.248    20.1627   4.862076     3.0718     37.000 3.0012e-01    20.1558    35.4259  1025.2061    25.0454    4.01571         20 0.0000e+00
       8596 165.918844     -1.192     36.238    20.1408   4.857120     3.0578     36.000 2.7548e-01    20.1340    35.4042  1025.1909    25.0346    3.99344         20 0.0000e+00
       8616 165.918854     -1.221     35.235    20.1180   4.851056     3.0460     35.000 2.6824e-01    20.1114    35.3741  1025.1696    25.0176    3.97527         19 0.0000e+00
       8637 165.918864     -1.209     34.227    20.0815   4.843133     3.0448     34.000 2.7168e-01    20.0752    35.3402  1025.1491    25.0014    3.97600         22 0.0000e+00
       8659 165.918874     -1.136     33.221    20.0419   4.834570     3.0554     33.000 2.7412e-01    20.0358    35.3036  1025.1273    24.9839    3.99708         24 0.0000e+00
       8684 165.918887     -1.007     32.212    20.0078   4.827472     3.0662     32.000 2.8477e-01    20.0019    35.2743  1025.1096    24.9705    4.01811         26 0.0000e+00
       8711 165.918900     -0.914     31.206    19.9406   4.811430     3.0781     31.000 2.8381e-01    19.9348    35.1994  1025.0658    24.9311    4.04444         27 0.0000e+00
       8737 165.918912     -0.922     30.195    19.8641   4.793571     3.0880     30.000 2.7171e-01    19.8586    35.1171  1025.0187    24.8883    4.06816         23 0.0000e+00
       8761 165.918924     -0.975     29.193    19.8026   4.779128     3.0974     29.000 2.9474e-01    19.7973    35.0501  1024.9794    24.8532    4.08980         26 0.0000e+00
       8786 165.918936     -0.982     28.184    19.7601   4.769711     3.1061     28.000 2.7483e-01    19.7549    35.0085  1024.9544    24.8326    4.10820         25 0.0000e+00
       8810 165.918947     -0.991     27.177    19.7120   4.758295     3.1168     27.000 2.7905e-01    19.7071    34.9549  1024.9217    24.8042    4.13072         23 0.0000e+00
       8832 165.918958     -1.033     26.171    19.6355   4.741656     3.1276     26.000 2.9968e-01    19.6307    34.8820  1024.8816    24.7684    4.15614         22 0.0000e+00
       8854 165.918969     -1.096     25.166    19.5777   4.729437     3.1383     25.000 2.8654e-01    19.5731    34.8296  1024.8523    24.7434    4.17944         22 0.0000e+00
       8877 165.918980     -1.079     24.163    19.4744   4.707458     3.1565     24.000 2.9076e-01    19.4700    34.7343  1024.8020    24.6974    4.22042         24 0.0000e+00
       8903 165.918992     -0.985     23.149    19.2848   4.668213     3.1856     23.000 3.2231e-01    19.2807    34.5669  1024.7187    24.6184    4.28873         27 0.0000e+00
       8927 165.919004     -0.969     22.145    19.0684   4.628200     3.2277     22.000 2.9043e-01    19.0644    34.4142  1024.6531    24.5571    4.38185         23 0.0000e+00
       8950 165.919015     -1.004     21.132    18.9967   4.613372     3.2628     21.000 3.0056e-01    18.9930    34.3504  1024.6182    24.5265    4.44949         20 0.0000e+00
       8970 165.919024     -1.112     20.135    18.9445   4.601345     3.2817     20.000 2.9778e-01    18.9410    34.2936  1024.5837    24.4963    4.48747         18 0.0000e+00
       8990 165.919034     -1.213     19.132    18.9291   4.595819     3.2910     19.000 3.0234e-01    18.9257    34.2606  1024.5580    24.4750    4.50526         21 0.0000e+00
       9012 165.919045     -1.168     18.125    18.9057   4.590296     3.3027     18.000 3.0175e-01    18.9025    34.2342  1024.5394    24.4607    4.52765         24 0.0000e+00
       9041 165.919058     -0.935     17.109    18.9257   4.591703     3.3144     17.000 3.2997e-01    18.9227    34.2298  1024.5265    24.4522    4.54584         27 0.0000e+00
       9069 165.919072     -0.847     16.110    18.9579   4.592058     3.3200     16.000 3.3399e-01    18.9551    34.2065  1024.4960    24.4261    4.55291         28 0.0000e+00
       9099 165.919087     -0.822     15.099    18.9543   4.589201     3.3254     15.000 3.3699e-01    18.9516    34.1860  1024.4769    24.4114    4.56250         30 0.0000e+00
       9127 165.919100     -0.827     14.093    18.9224   4.582911     3.3283     14.000 3.4200e-01    18.9199    34.1602  1024.4609    24.3997    4.57035         28 0.0000e+00
       9155 165.919114     -0.865     13.084    18.8690   4.574492     3.3364     13.000 4.0073e-01    18.8667    34.1342  1024.4501    24.3933    4.58898         28 0.0000e+00
       9181 165.919126     -0.887     12.076    18.8292   4.568206     3.3440     12.000 4.3153e-01    18.8271    34.1149  1024.4410    24.3885    4.60533         24 0.0000e+00
       9205 165.919138     -0.981     11.073    18.7757   4.557291     3.3482     11.000 4.5242e-01    18.7738    34.0680  1024.4142    24.3661    4.61787         24 0.0000e+00
       9229 165.919149     -1.002     10.063    18.7316   4.543462     3.3584     10.000 5.6747e-01    18.7298    33.9890  1024.3605    24.3168    4.64093         22 0.0000e+00
       9253 165.919161     -1.010      9.067    18.6796   4.528346     3.3831      9.000 8.9639e-01    18.6781    33.9054  1024.3052    24.2658    4.69027         27 0.0000e+00
       9281 165.919175     -0.911      8.048    18.6984   4.523640     3.4286      8.000 1.1506e+00    18.6970    33.8509  1024.2545    24.2195    4.76906         26 0.0000e+00
       9306 165.919187     -0.916      7.050    18.7268   4.522617     3.4723      7.000 1.3137e+00    18.7256    33.8194  1024.2189    24.1882    4.84334         25 0.0000e+00
       9339 165.919202     -0.815      6.044    18.7361   4.522685     3.5144      6.000 1.4509e+00    18.7351    33.8127  1024.2070    24.1807    4.91554         43 0.0000e+00
       9396 165.919230     -0.405      5.034    18.7375   4.523631     3.5340      5.000 1.3960e+00    18.7366    33.8198  1024.2077    24.1858    4.94888         54 0.0000e+00
       9487 165.919274     -0.234      4.025    18.7401   4.523920     3.5411      4.000 1.4446e+00    18.7394    33.8205  1024.2030    24.1856    4.96033         48 0.0000e+00
       9564 165.919311     -0.371      3.020    18.7408   4.522884     3.5461      3.000 1.5144e+00    18.7402    33.8116  1024.1917    24.1786    4.96865         47 0.0000e+00
       9702 165.919377     -0.156      2.016    18.7444   4.523264     3.5572      2.000 1.4781e+00    18.7441    33.8122  1024.1868    24.1781    4.98691         35 0.0000e+00
      11238 165.920118     -0.278      1.007    18.7570   4.524178     3.5624      1.000 1.4832e+00    18.7569    33.8099  1024.1774    24.1731    4.99429         50 0.0000e+00
