* Sea-Bird SBE 19plus V2 Data File:
* FileName = D:\ACEX_ctd\brutos\MCTV030.hex
* Software Version Seasave V 7.17
* Temperature SN = 6161
* Conductivity SN = 6161
* System UpLoad Time = Jun 19 2012 22:39:02
** H38 
** NHo Cruzeiro do Sul 
** 222 
** MCT V 
**   030
**   33 37.99 S
**   052 09.61 W
**   20/06/2012 01:29 Z
**   69
** 9P46375-0882 
**   1T Oliveira Santos
# nquan = 14
# nvalues = 60                          
# units = specified
# name 0 = scan: Scan Count
# name 1 = timeJ: Julian Days
# name 2 = dz/dtM: Descent Rate [m/s]
# name 3 = prdM: Pressure, Strain Gauge [db]
# name 4 = tv290C: Temperature [ITS-90, deg C]
# name 5 = c0S/m: Conductivity [S/m]
# name 6 = depSM: Depth [salt water, m]
# name 7 = oxsatML/L: Oxygen Saturation [ml/l]
# name 8 = flSP: Fluorescence, Seapoint
# name 9 = potemp090C: Potential Temperature [ITS-90, deg C]
# name 10 = sal00: Salinity [PSU]
# name 11 = density00: Density [density, Kg/m^3]
# name 12 = oxsatML/L: Oxygen Saturation [ml/l]
# name 13 = flag: flag
# span 0 =       1054,       1561       
# span 1 = 171.946820, 171.948288       
# span 2 =     -0.986,     -0.065       
# span 3 =      3.964,     63.318       
# span 4 =    14.5132,    15.1823       
# span 5 =   3.904596,   4.176782       
# span 6 =      4.000,     63.000       
# span 7 =    5.70983,    5.85477       
# span 8 = 2.1710e-01, 3.5034e+00       
# span 9 =    14.5125,    15.1758       
# span 10 =    31.8892,    33.8001      
# span 11 =  1023.7006,  1025.3119      
# span 12 =    5.70980,    5.85484      
# span 13 = 0.0000e+00, 0.0000e+00      
# interval = meters: 1                  
# start_time = Jun 19 2012 22:39:02
# bad_flag = -9.990e-29
# sensor 0 = Frequency 0  temperature, 6161, 21-Oct-08
# sensor 1 = Frequency 1  conductivity, 6161, 21-Oct-08, cpcor = -9.5700e-08
# sensor 2 = Pressure Number
# sensor 3 = Extrnl Volt  0  Fluorometer, Seapoint, primary
# sensor 4 = Extrnl Volt  2  altimeter
# datcnv_date = Jun 20 2012 15:35:00, 7.17
# datcnv_in = D:\ACEX_ctd\brutos\MCTV030.hex D:\ACEX_ctd\arqconfig\AC6161.con
# datcnv_skipover = 1
# filter_date = Jun 20 2012 15:41:15, 7.17
# filter_in = D:\ACEX_ctd\dat cnv\MCTV030.cnv
# filter_low_pass_tc_A = 1.000
# filter_low_pass_tc_B = 0.150
# filter_low_pass_A_vars = prdM flSP
# filter_low_pass_B_vars = c0S/m
# alignctd_date = Jun 20 2012 15:41:32, 7.17
# alignctd_in = D:\ACEX_ctd\filter\MCTV030.cnv
# alignctd_adv = c0S/m -0.010                                                                                                                                                                                                        
# wildedit_date = Jun 20 2012 15:41:47, 7.17
# wildedit_in = D:\ACEX_ctd\align\MCTV030.cnv
# wildedit_pass1_nstd = 2.0
# wildedit_pass2_nstd = 20.0
# wildedit_pass2_mindelta = 1.000e+002
# wildedit_npoint = 1000
# wildedit_vars = dz/dtM prdM tv290C c0S/m oxsatML/L flSP
# wildedit_excl_bad_scans = yes
# celltm_date = Jun 20 2012 15:42:08, 7.17
# celltm_in = D:\ACEX_ctd\wildedit\MCTV030.cnv
# celltm_alpha = 0.0300, 0.0000
# celltm_tau = 7.0000, 0.0000
# celltm_temp_sensor_use_for_cond = primary, 
# loopedit_date = Jun 20 2012 15:42:21, 7.17
# loopedit_in = D:\ACEX_ctd\celltm\MCTV030.cnv
# loopedit_minVelocity = 0.250                                                                                            
# loopedit_surfaceSoak: minDepth = 5.0, maxDepth = 20, useDeckPress = 1                                                   
# loopedit_excl_bad_scans = yes
# Derive_date = Jun 20 2012 15:42:38, 7.17
# Derive_in = D:\ACEX_ctd\loopedit\MCTV030.cnv C:\Documents and Settings\Coleta\Desktop\Nova pasta\6161.con
# binavg_date = Jun 20 2012 15:42:52, 7.17
# binavg_in = D:\ACEX_ctd\derive\MCTV030.cnv
# binavg_bintype = meters
# binavg_binsize = 1
# binavg_excl_bad_scans = yes
# binavg_skipover = 0
# binavg_surface_bin = no, min = 0.000, max = 0.000, value = 0.000
# split_date = Jun 20 2012 15:43:23, 7.17
# split_in = D:\ACEX_ctd\binavg\MCTV030.cnv
# split_excl_bad_scans = yes
# file_type = ascii
*END*
       1054 171.946820     -0.356     63.318    15.0708   4.169295     63.000    5.72160 2.4742e-01    15.0613    33.7991  1025.3119    5.72160 0.0000e+00
       1058 171.946832     -0.503     62.377    15.0705   4.169172     62.000    5.72165 2.5059e-01    15.0612    33.7986  1025.3074    5.72165 0.0000e+00
       1069 171.946863     -0.336     61.313    15.0707   4.169212     61.000    5.72160 2.4033e-01    15.0615    33.7992  1025.3031    5.72160 0.0000e+00
       1078 171.946889     -0.495     60.276    15.0706   4.169098     60.000    5.72164 2.3226e-01    15.0616    33.7986  1025.2982    5.72163 0.0000e+00
       1084 171.946906     -0.686     59.434    15.0706   4.169135     59.000    5.72161 2.3635e-01    15.0617    33.7993  1025.2950    5.72161 0.0000e+00
       1094 171.946935     -0.353     58.318    15.0737   4.169369     58.000    5.72126 2.4419e-01    15.0650    33.7992  1025.2892    5.72126 0.0000e+00
       1104 171.946965     -0.388     57.330    15.0762   4.169627     57.000    5.72095 2.4587e-01    15.0676    33.7997  1025.2847    5.72095 0.0000e+00
       1116 171.946999     -0.310     56.132    15.0826   4.170133     56.000    5.72024 2.3631e-01    15.0741    33.7993  1025.2776    5.72023 0.0000e+00
       1121 171.947013     -0.708     55.310    15.0863   4.170542     55.000    5.71978 2.3603e-01    15.0780    33.8001  1025.2738    5.71978 0.0000e+00
       1126 171.947028     -0.771     54.415    15.0939   4.171097     54.000    5.71895 2.4240e-01    15.0857    33.7989  1025.2673    5.71894 0.0000e+00
       1135 171.947054     -0.462     53.374    15.1041   4.171767     53.000    5.71786 2.5104e-01    15.0961    33.7965  1025.2585    5.71784 0.0000e+00
       1149 171.947096     -0.244     52.186    15.1183   4.172566     52.000    5.71640 2.3768e-01    15.1104    33.7920  1025.2467    5.71637 0.0000e+00
       1158 171.947120     -0.509     51.105    15.1266   4.172954     51.000    5.71556 2.4002e-01    15.1189    33.7888  1025.2376    5.71554 0.0000e+00
       1161 171.947131     -0.822     50.308    15.1302   4.173244     50.000    5.71515 2.5477e-01    15.1226    33.7886  1025.2331    5.71513 0.0000e+00
       1166 171.947143     -0.986     49.530    15.1366   4.173662     49.000    5.71446 2.5343e-01    15.1292    33.7871  1025.2271    5.71444 0.0000e+00
       1183 171.947194     -0.138     48.081    15.1463   4.174217     48.000    5.71344 2.4729e-01    15.1390    33.7844  1025.2164    5.71343 0.0000e+00
       1189 171.947211     -0.677     47.253    15.1506   4.174792     47.000    5.71288 2.3942e-01    15.1435    33.7862  1025.2131    5.71286 0.0000e+00
       1195 171.947228     -0.718     46.350    15.1606   4.175454     46.000    5.71182 2.3142e-01    15.1537    33.7839  1025.2052    5.71179 0.0000e+00
       1204 171.947254     -0.432     45.257    15.1686   4.176077     45.000    5.71093 2.3306e-01    15.1617    33.7831  1025.1980    5.71091 0.0000e+00
       1213 171.947279     -0.465     44.288    15.1769   4.176782     44.000    5.70999 2.2410e-01    15.1702    33.7826  1025.1915    5.70997 0.0000e+00
       1224 171.947312     -0.332     43.163    15.1823   4.175799     43.000    5.70983 2.3422e-01    15.1758    33.7695  1025.1752    5.70980 0.0000e+00
       1231 171.947333     -0.549     42.189    15.1530   4.171082     42.000    5.71375 2.4081e-01    15.1467    33.7525  1025.1643    5.71377 0.0000e+00
       1237 171.947351     -0.651     41.264    15.1188   4.166091     41.000    5.71821 2.2975e-01    15.1126    33.7373  1025.1559    5.71823 0.0000e+00
       1245 171.947371     -0.573     40.322    15.0895   4.161871     40.000    5.72201 2.1710e-01    15.0835    33.7247  1025.1484    5.72204 0.0000e+00
       1257 171.947408     -0.246     39.095    15.0455   4.156977     39.000    5.72725 2.2725e-01    15.0397    33.7188  1025.1481    5.72732 0.0000e+00
       1264 171.947428     -0.582     38.202    15.0379   4.154762     38.000    5.72862 2.2250e-01    15.0322    33.7057  1025.1357    5.72866 0.0000e+00
       1271 171.947447     -0.623     37.259    15.0128   4.151462     37.000    5.73179 2.2268e-01    15.0073    33.6978  1025.1309    5.73184 0.0000e+00
       1279 171.947471     -0.472     36.219    14.9924   4.148825     36.000    5.73434 2.2478e-01    14.9870    33.6919  1025.1262    5.73441 0.0000e+00
       1289 171.947500     -0.373     35.170    14.9756   4.145616     35.000    5.73680 2.2570e-01    14.9704    33.6777  1025.1142    5.73685 0.0000e+00
       1298 171.947527     -0.456     34.089    14.9791   4.143854     34.000    5.73704 2.3757e-01    14.9741    33.6591  1025.0943    5.73709 0.0000e+00
       1303 171.947542     -0.745     33.274    15.0127   4.142259     33.000    5.73473 2.4602e-01    15.0078    33.6160  1025.0502    5.73472 0.0000e+00
       1313 171.947569     -0.441     32.192    15.0480   4.140415     32.000    5.73230 2.5021e-01    15.0432    33.5693  1025.0017    5.73227 0.0000e+00
       1323 171.947598     -0.396     30.996    15.0632   4.126055     31.000    5.73547 2.6223e-01    15.0586    33.4269  1024.8834    5.73552 0.0000e+00
       1327 171.947611     -0.754     30.184    15.0813   4.087549     30.000    5.74634 2.8474e-01    15.0769    33.0638  1024.5962    5.74618 0.0000e+00
       1333 171.947626     -0.832     29.324    15.0921   4.070673     29.000    5.75070 3.3550e-01    15.0878    32.9027  1024.4660    5.75060 0.0000e+00
       1343 171.947657     -0.288     28.092    15.0508   4.045158     28.000    5.76231 4.0236e-01    15.0467    32.7077  1024.3193    5.76226 0.0000e+00
       1351 171.947680     -0.528     27.137    15.0113   4.034692     27.000    5.76905 6.9612e-01    15.0073    32.6466  1024.2766    5.76903 0.0000e+00
       1359 171.947701     -0.547     26.137    14.9475   4.024477     26.000    5.77776 1.1502e+00    14.9436    32.6081  1024.2563    5.77784 0.0000e+00
       1366 171.947722     -0.571     25.182    14.9301   4.021881     25.000    5.78010 1.4194e+00    14.9264    32.5995  1024.2491    5.78017 0.0000e+00
       1374 171.947747     -0.466     24.177    14.9183   4.020125     24.000    5.78169 1.6889e+00    14.9147    32.5939  1024.2429    5.78176 0.0000e+00
       1386 171.947780     -0.313     23.031    14.9101   4.019014     23.000    5.78276 1.9788e+00    14.9067    32.5911  1024.2374    5.78281 0.0000e+00
       1393 171.947801     -0.550     22.041    14.9087   4.018719     22.000    5.78298 1.6104e+00    14.9054    32.5901  1024.2324    5.78302 0.0000e+00
       1398 171.947815     -0.806     21.232    14.9069   4.018488     21.000    5.78320 1.4878e+00    14.9038    32.5898  1024.2290    5.78324 0.0000e+00
       1408 171.947845     -0.401     20.134    14.9061   4.018445     20.000    5.78328 1.4737e+00    14.9031    32.5905  1024.2248    5.78330 0.0000e+00
       1419 171.947877     -0.446     19.004    14.9052   4.018178     19.000    5.78344 1.4862e+00    14.9024    32.5892  1024.2190    5.78346 0.0000e+00
       1425 171.947893     -0.707     18.166    14.9021   4.017578     18.000    5.78389 1.5910e+00    14.8995    32.5867  1024.2140    5.78390 0.0000e+00
       1433 171.947916     -0.516     17.134    14.8988   4.016860     17.000    5.78439 1.6300e+00    14.8963    32.5834  1024.2075    5.78441 0.0000e+00
       1442 171.947944     -0.422     16.102    14.8651   4.005436     16.000    5.79098 1.6018e+00    14.8627    32.5085  1024.1525    5.79103 0.0000e+00
       1453 171.947974     -0.371     14.979    14.7582   3.982354     15.000    5.80781 1.8636e+00    14.7560    32.3889  1024.0782    5.80785 0.0000e+00
       1459 171.947993     -0.606     14.046    14.7274   3.976273     14.000    5.81239 2.2344e+00    14.7254    32.3598  1024.0582    5.81253 0.0000e+00
       1465 171.948009     -0.715     13.160    14.7078   3.973952     13.000    5.81494 2.5014e+00    14.7059    32.3554  1024.0550    5.81500 0.0000e+00
       1474 171.948036     -0.423     12.117    14.7243   3.978202     12.000    5.81206 2.8447e+00    14.7225    32.3806  1024.0662    5.81215 0.0000e+00
       1487 171.948072     -0.340     11.005    14.7245   3.976276     11.000    5.81270 3.0715e+00    14.7229    32.3634  1024.0480    5.81274 0.0000e+00
       1495 171.948096     -0.489     10.052    14.6753   3.959556     10.000    5.82245 3.1747e+00    14.6738    32.2528  1023.9690    5.82251 0.0000e+00
       1503 171.948119     -0.494      9.086    14.6144   3.946981      9.000    5.83195 3.4396e+00    14.6131    32.1895  1023.9288    5.83200 0.0000e+00
       1515 171.948155     -0.331      8.049    14.5773   3.930167      8.000    5.84076 3.5034e+00    14.5762    32.0677  1023.8380    5.84078 0.0000e+00
       1528 171.948192     -0.424      7.010    14.5384   3.912866      7.000    5.84978 3.4211e+00    14.5373    31.9429  1023.7455    5.84990 0.0000e+00
       1537 171.948218     -0.439      6.046    14.5237   3.906766      6.000    5.85314 3.4963e+00    14.5229    31.8999  1023.7110    5.85320 0.0000e+00
       1547 171.948246     -0.423      5.083    14.5132   3.904596      5.000    5.85477 3.4587e+00    14.5125    31.8892  1023.7006    5.85484 0.0000e+00
       1561 171.948288     -0.065      3.964    14.5205   3.908038      4.000    5.85315 2.5170e+00    14.5201    31.9147  1023.7140    5.85305 0.0000e+00
