* Sea-Bird SBE 19plus V2 Data File:
* FileName = D:\ACEX_ctd\brutos\MCTV029.hex
* Software Version Seasave V 7.17
* Temperature SN = 6161
* Conductivity SN = 6161
* System UpLoad Time = Jun 19 2012 19:05:49
** H38 
** NHo Cruzeiro do Sul 
** 222 
** MCT V 
**   029
**   33 41.49 S
**   051 45.26 W
**   19/06/2012 22:05 Z
**   60
** 9P46375-0882 
**   Ct Fernandes
# nquan = 14
# nvalues = 54                          
# units = specified
# name 0 = scan: Scan Count
# name 1 = timeJ: Julian Days
# name 2 = dz/dtM: Descent Rate [m/s]
# name 3 = prdM: Pressure, Strain Gauge [db]
# name 4 = tv290C: Temperature [ITS-90, deg C]
# name 5 = c0S/m: Conductivity [S/m]
# name 6 = depSM: Depth [salt water, m]
# name 7 = oxsatML/L: Oxygen Saturation [ml/l]
# name 8 = flSP: Fluorescence, Seapoint
# name 9 = potemp090C: Potential Temperature [ITS-90, deg C]
# name 10 = sal00: Salinity [PSU]
# name 11 = density00: Density [density, Kg/m^3]
# name 12 = oxsatML/L: Oxygen Saturation [ml/l]
# name 13 = flag: flag
# span 0 =       1501,       2479       
# span 1 = 171.800047, 171.802875       
# span 2 =     -0.608,     -0.023       
# span 3 =      2.031,     55.265       
# span 4 =    14.6093,    15.0801       
# span 5 =   4.094982,   4.209678       
# span 6 =      2.000,     55.000       
# span 7 =    5.70796,    5.78431       
# span 8 = 1.8232e-01, 1.6372e+00       
# span 9 =    14.6081,    15.0718       
# span 10 =    33.5392,    34.1602      
# span 11 =  1024.9344,  1025.5523      
# span 12 =    5.70789,    5.78431      
# span 13 = 0.0000e+00, 0.0000e+00      
# interval = meters: 1                  
# start_time = Jun 19 2012 19:05:49
# bad_flag = -9.990e-29
# sensor 0 = Frequency 0  temperature, 6161, 21-Oct-08
# sensor 1 = Frequency 1  conductivity, 6161, 21-Oct-08, cpcor = -9.5700e-08
# sensor 2 = Pressure Number
# sensor 3 = Extrnl Volt  0  Fluorometer, Seapoint, primary
# sensor 4 = Extrnl Volt  2  altimeter
# datcnv_date = Jun 20 2012 15:29:56, 7.17
# datcnv_in = D:\ACEX_ctd\brutos\MCTV029.hex D:\ACEX_ctd\arqconfig\AC6161.con
# datcnv_skipover = 1
# filter_date = Jun 20 2012 15:30:07, 7.17
# filter_in = D:\ACEX_ctd\dat cnv\MCTV029.cnv
# filter_low_pass_tc_A = 1.000
# filter_low_pass_tc_B = 0.150
# filter_low_pass_A_vars = prdM flSP
# filter_low_pass_B_vars = c0S/m
# alignctd_date = Jun 20 2012 15:30:24, 7.17
# alignctd_in = D:\ACEX_ctd\filter\MCTV029.cnv
# alignctd_adv = c0S/m -0.010                                                                                                                                                                                                        
# wildedit_date = Jun 20 2012 15:30:36, 7.17
# wildedit_in = D:\ACEX_ctd\align\MCTV029.cnv
# wildedit_pass1_nstd = 2.0
# wildedit_pass2_nstd = 20.0
# wildedit_pass2_mindelta = 1.000e+002
# wildedit_npoint = 1000
# wildedit_vars = dz/dtM prdM tv290C c0S/m oxsatML/L flSP
# wildedit_excl_bad_scans = yes
# celltm_date = Jun 20 2012 15:31:14, 7.17
# celltm_in = D:\ACEX_ctd\wildedit\MCTV029.cnv
# celltm_alpha = 0.0300, 0.0000
# celltm_tau = 7.0000, 0.0000
# celltm_temp_sensor_use_for_cond = primary, 
# loopedit_date = Jun 20 2012 15:31:30, 7.17
# loopedit_in = D:\ACEX_ctd\celltm\MCTV029.cnv
# loopedit_minVelocity = 0.250                                                                                            
# loopedit_surfaceSoak: minDepth = 5.0, maxDepth = 20, useDeckPress = 1                                                   
# loopedit_excl_bad_scans = yes
# Derive_date = Jun 20 2012 15:31:40, 7.17
# Derive_in = D:\ACEX_ctd\loopedit\MCTV029.cnv C:\Documents and Settings\Coleta\Desktop\Nova pasta\6161.con
# binavg_date = Jun 20 2012 15:32:18, 7.17
# binavg_in = D:\ACEX_ctd\derive\MCTV029.cnv
# binavg_bintype = meters
# binavg_binsize = 1
# binavg_excl_bad_scans = yes
# binavg_skipover = 0
# binavg_surface_bin = no, min = 0.000, max = 0.000, value = 0.000
# split_date = Jun 20 2012 15:33:53, 7.17
# split_in = D:\ACEX_ctd\binavg\MCTV029.cnv
# split_excl_bad_scans = yes
# file_type = ascii
*END*
       1501 171.800047     -0.023     55.265    15.0801   4.209678     55.000    5.70796 2.1415e-01    15.0718    34.1602  1025.5523    5.70789 0.0000e+00
       1545 171.800175     -0.330     54.322    14.9958   4.197992     54.000    5.71864 2.1991e-01    14.9877    34.1281  1025.5419    5.71871 0.0000e+00
       1569 171.800244     -0.126     53.183    14.9269   4.189144     53.000    5.72731 2.0438e-01    14.9190    34.1084  1025.5367    5.72736 0.0000e+00
       1584 171.800285     -0.369     52.273    14.8958   4.185142     52.000    5.73120 2.0084e-01    14.8880    34.0995  1025.5327    5.73127 0.0000e+00
       1602 171.800338     -0.322     51.252    14.8842   4.183081     51.000    5.73286 2.0221e-01    14.8766    34.0913  1025.5243    5.73289 0.0000e+00
       1618 171.800385     -0.530     50.312    14.8755   4.181851     50.000    5.73399 1.9892e-01    14.8680    34.0881  1025.5195    5.73402 0.0000e+00
       1639 171.800445     -0.315     49.234    14.8725   4.180967     49.000    5.73452 1.9000e-01    14.8651    34.0831  1025.5116    5.73454 0.0000e+00
       1653 171.800485     -0.521     48.346    14.8650   4.179660     48.000    5.73556 1.8492e-01    14.8579    34.0781  1025.5054    5.73558 0.0000e+00
       1675 171.800550     -0.370     47.274    14.8523   4.178022     47.000    5.73716 1.9175e-01    14.8453    34.0747  1025.5008    5.73717 0.0000e+00
       1692 171.800598     -0.294     46.265    14.8557   4.178293     46.000    5.73678 1.8726e-01    14.8488    34.0746  1025.4955    5.73679 0.0000e+00
       1714 171.800664     -0.198     45.151    14.8657   4.179448     45.000    5.73555 1.8566e-01    14.8590    34.0768  1025.4901    5.73554 0.0000e+00
       1723 171.800689     -0.597     44.394    14.8720   4.180172     44.000    5.73477 1.8232e-01    14.8655    34.0782  1025.4864    5.73476 0.0000e+00
       1750 171.800766     -0.273     43.178    14.8798   4.180480     43.000    5.73400 1.9563e-01    14.8733    34.0747  1025.4766    5.73399 0.0000e+00
       1765 171.800810     -0.350     42.240    14.8744   4.179245     42.000    5.73483 1.9084e-01    14.8681    34.0686  1025.4689    5.73483 0.0000e+00
       1783 171.800862     -0.412     41.214    14.8687   4.178406     41.000    5.73556 1.8882e-01    14.8626    34.0663  1025.4638    5.73557 0.0000e+00
       1800 171.800911     -0.395     40.297    14.8660   4.177845     40.000    5.73596 1.9129e-01    14.8600    34.0639  1025.4585    5.73597 0.0000e+00
       1820 171.800969     -0.262     39.191    14.8614   4.177067     39.000    5.73659 1.9300e-01    14.8556    34.0613  1025.4525    5.73659 0.0000e+00
       1839 171.801023     -0.279     38.164    14.8526   4.175485     38.000    5.73783 1.9230e-01    14.8470    34.0549  1025.4450    5.73783 0.0000e+00
       1853 171.801065     -0.532     37.265    14.8394   4.173039     37.000    5.73972 1.9676e-01    14.8339    34.0446  1025.4359    5.73973 0.0000e+00
       1875 171.801128     -0.439     36.165    14.8028   4.168441     36.000    5.74428 2.0074e-01    14.7974    34.0351  1025.4317    5.74431 0.0000e+00
       1889 171.801168     -0.546     35.282    14.7883   4.165990     35.000    5.74630 2.0620e-01    14.7831    34.0257  1025.4237    5.74633 0.0000e+00
       1910 171.801229     -0.480     34.227    14.7668   4.162591     34.000    5.74921 2.1296e-01    14.7618    34.0139  1025.4145    5.74924 0.0000e+00
       1928 171.801280     -0.291     33.188    14.7412   4.157831     33.000    5.75294 2.1919e-01    14.7363    33.9932  1025.3995    5.75295 0.0000e+00
       1947 171.801336     -0.357     32.209    14.7189   4.151699     32.000    5.75683 2.4287e-01    14.7141    33.9571  1025.3721    5.75683 0.0000e+00
       1963 171.801383     -0.271     31.165    14.7156   4.146018     31.000    5.75892 2.4668e-01    14.7110    33.9085  1025.3306    5.75893 0.0000e+00
       1986 171.801448     -0.345     30.111    14.7444   4.143578     30.000    5.75723 3.1100e-01    14.7400    33.8615  1025.2835    5.75723 0.0000e+00
       1994 171.801471     -0.523     29.291    14.7533   4.142154     29.000    5.75693 3.5753e-01    14.7490    33.8411  1025.2623    5.75691 0.0000e+00
 -9.990e-29 -9.990e-29 -9.990e-29 -9.990e-29 -9.990e-29 -9.990e-29     28.000 -9.990e-29 -9.990e-29 -9.990e-29 -9.990e-29 -9.990e-29 -9.990e-29 -9.990e-29
       2036 171.801593     -0.277     27.197    14.7916   4.139635     27.000    5.75443 5.2958e-01    14.7876    33.7857  1025.2019    5.75440 0.0000e+00
       2055 171.801649     -0.333     26.110    14.7508   4.124739     26.000    5.76268 7.0231e-01    14.7469    33.6857  1025.1288    5.76270 0.0000e+00
       2068 171.801686     -0.608     25.265    14.7167   4.116507     25.000    5.76827 8.5945e-01    14.7129    33.6405  1025.0975    5.76828 0.0000e+00
       2090 171.801752     -0.273     24.138    14.6892   4.109782     24.000    5.77277 1.0543e+00    14.6856    33.6033  1025.0698    5.77282 0.0000e+00
       2108 171.801803     -0.239     23.070    14.6617   4.103316     23.000    5.77724 1.1552e+00    14.6583    33.5684  1025.0441    5.77727 0.0000e+00
       2126 171.801855     -0.304     22.099    14.6516   4.101502     22.000    5.77872 1.3013e+00    14.6483    33.5610  1025.0361    5.77872 0.0000e+00
       2139 171.801893     -0.481     21.181    14.6460   4.100528     21.000    5.77949 1.3496e+00    14.6429    33.5573  1025.0304    5.77951 0.0000e+00
       2164 171.801965     -0.260     20.018    14.6332   4.098529     20.000    5.78123 1.3803e+00    14.6303    33.5505  1025.0227    5.78125 0.0000e+00
       2178 171.802004     -0.357     19.122    14.6316   4.098351     19.000    5.78142 1.4059e+00    14.6288    33.5506  1025.0191    5.78143 0.0000e+00
       2195 171.802056     -0.349     18.125    14.6278   4.097822     18.000    5.78191 1.4426e+00    14.6251    33.5495  1025.0147    5.78192 0.0000e+00
       2213 171.802107     -0.366     17.118    14.6243   4.097330     17.000    5.78236 1.4904e+00    14.6218    33.5484  1025.0101    5.78236 0.0000e+00
       2233 171.802164     -0.251     16.073    14.6235   4.097129     16.000    5.78248 1.5066e+00    14.6212    33.5476  1025.0050    5.78248 0.0000e+00
       2250 171.802213     -0.259     15.097    14.6233   4.097031     15.000    5.78252 1.5570e+00    14.6211    33.5473  1025.0005    5.78252 0.0000e+00
 -9.990e-29 -9.990e-29 -9.990e-29 -9.990e-29 -9.990e-29 -9.990e-29     14.000 -9.990e-29 -9.990e-29 -9.990e-29 -9.990e-29 -9.990e-29 -9.990e-29 -9.990e-29
 -9.990e-29 -9.990e-29 -9.990e-29 -9.990e-29 -9.990e-29 -9.990e-29     13.000 -9.990e-29 -9.990e-29 -9.990e-29 -9.990e-29 -9.990e-29 -9.990e-29 -9.990e-29
       2309 171.802384     -0.251     11.789    14.6122   4.095421     12.000    5.78396 1.5376e+00    14.6105    33.5435  1024.9852    5.78397 0.0000e+00
       2318 171.802411     -0.371     11.153    14.6127   4.095544     11.000    5.78387 1.5510e+00    14.6110    33.5444  1024.9830    5.78388 0.0000e+00
       2340 171.802473     -0.256     10.047    14.6114   4.095257     10.000    5.78406 1.4346e+00    14.6099    33.5434  1024.9775    5.78406 0.0000e+00
       2359 171.802529     -0.225      9.002    14.6098   4.095027      9.000    5.78426 1.4394e+00    14.6085    33.5431  1024.9730    5.78426 0.0000e+00
       2374 171.802572     -0.350      8.043    14.6093   4.094982      8.000    5.78431 1.5017e+00    14.6081    33.5435  1024.9691    5.78431 0.0000e+00
       2392 171.802626     -0.313      7.049    14.6134   4.095678      7.000    5.78371 1.5854e+00    14.6123    33.5467  1024.9663    5.78371 0.0000e+00
       2411 171.802680     -0.245      5.997    14.6339   4.097479      6.000    5.78133 1.5584e+00    14.6330    33.5459  1024.9566    5.78134 0.0000e+00
       2427 171.802725     -0.299      5.055    14.6328   4.096603      5.000    5.78172 1.4988e+00    14.6320    33.5392  1024.9475    5.78170 0.0000e+00
       2445 171.802779     -0.291      4.041    14.6227   4.096217      4.000    5.78268 1.6372e+00    14.6222    33.5447  1024.9494    5.78268 0.0000e+00
       2464 171.802832     -0.237      3.000    14.6436   4.097941      3.000    5.78031 1.6031e+00    14.6431    33.5429  1024.9389    5.78030 0.0000e+00
       2479 171.802875     -0.283      2.031    14.6488   4.098523      2.000    5.77965 1.4893e+00    14.6485    33.5441  1024.9344    5.77965 0.0000e+00
