* Sea-Bird SBE 19plus V2 Data File:
* FileName = D:\ACEX\brutos\MCTV017.hex
* Software Version Seasave V 7.17
* Temperature SN = 6161
* Conductivity SN = 6161
* System UpLoad Time = Jun 16 2012 18:45:39
** H38 
** NHo Cruzeiro do Sul 
** 222 
** MCTV ACEx 
**   017
**   29 10.84 S
**   048 40.26 W
**   16/06/2012 21:45 Z
**   95
** 19P51959-6161 
**   CT Fernandes
# nquan = 14
# nvalues = 85                          
# units = specified
# name 0 = scan: Scan Count
# name 1 = timeJ: Julian Days
# name 2 = dz/dtM: Descent Rate [m/s]
# name 3 = prdM: Pressure, Strain Gauge [db]
# name 4 = tv290C: Temperature [ITS-90, deg C]
# name 5 = c0S/m: Conductivity [S/m]
# name 6 = depSM: Depth [salt water, m]
# name 7 = flSP: Fluorescence, Seapoint
# name 8 = potemp090C: Potential Temperature [ITS-90, deg C]
# name 9 = sal00: Salinity [PSU]
# name 10 = density00: Density [density, Kg/m^3]
# name 11 = sigma-é00: Density [sigma-theta, Kg/m^3]
# name 12 = nbin: number of scans per bin
# name 13 = flag: flag
# span 0 =       1494,       3469       
# span 1 = 168.786022, 168.791735       
# span 2 =     -0.998,     -0.033       
# span 3 =      2.252,     86.656       
# span 4 =    18.0072,    21.2814       
# span 5 =   4.302323,   5.081543       
# span 6 =      2.000,     86.000       
# span 7 = 1.0740e-01, 1.1878e+00       
# span 8 =    18.0057,    21.2689       
# span 9 =    32.5471,    36.2619       
# span 10 =  1023.3943,  1026.2740      
# span 11 =    23.3846,    25.8980      
# span 12 =          0,         11      
# span 13 = 0.0000e+00, 0.0000e+00      
# interval = meters: 1                  
# start_time = Jun 16 2012 18:45:39
# bad_flag = -9.990e-29
# sensor 0 = Frequency 0  temperature, 6161, 21-Oct-08
# sensor 1 = Frequency 1  conductivity, 6161, 21-Oct-08, cpcor = -9.5700e-08
# sensor 2 = Pressure Number
# sensor 3 = Extrnl Volt  0  Fluorometer, Seapoint, primary
# sensor 4 = Extrnl Volt  2  altimeter
# datcnv_date = Jun 16 2012 19:56:40, 7.17
# datcnv_in = D:\ACEX\brutos\MCTV017.hex D:\ACEX\arqconfig\AC6161.con
# datcnv_skipover = 452
# filter_date = Jun 16 2012 19:59:49, 7.17
# filter_in = D:\ACEX\dat cnv\MCTV017.cnv
# filter_low_pass_tc_A = 1.000
# filter_low_pass_tc_B = 0.000
# filter_low_pass_A_vars = prdM tv290C
# filter_low_pass_B_vars = c0S/m
# alignctd_date = Jun 16 2012 20:03:36, 7.17
# alignctd_in = D:\ACEX\filter\MCTV017.cnv
# alignctd_adv = tv290C 0.500                                                                                                                                                                                                        
# wildedit_date = Jun 16 2012 20:06:29, 7.17
# wildedit_in = D:\ACEX\align\MCTV017.cnv
# wildedit_pass1_nstd = 2.0
# wildedit_pass2_nstd = 20.0
# wildedit_pass2_mindelta = 1.000e+002
# wildedit_npoint = 1000
# wildedit_vars = dz/dtM prdM tv290C c0S/m flSP
# wildedit_excl_bad_scans = yes
# celltm_date = Jun 16 2012 20:07:36, 7.17
# celltm_in = D:\ACEX\wildedit\MCTV017.cnv
# celltm_alpha = 0.0400, 0.0000
# celltm_tau = 8.0000, 0.0000
# celltm_temp_sensor_use_for_cond = primary, 
# loopedit_date = Jun 16 2012 20:09:09, 7.17
# loopedit_in = D:\ACEX\celltm\MCTV017.cnv
# loopedit_minVelocity = 0.250                                                                                            
# loopedit_surfaceSoak: minDepth = 5.0, maxDepth = 20, useDeckPress = 1                                                   
# loopedit_excl_bad_scans = yes
# Derive_date = Jun 16 2012 20:11:13, 7.17
# Derive_in = D:\ACEX\loopedit\MCTV017.cnv D:\ACEX\arqconfig\AC6161.con
# binavg_date = Jun 16 2012 20:11:49, 7.17
# binavg_in = D:\ACEX\derive\MCTV017.cnv
# binavg_bintype = meters
# binavg_binsize = 1
# binavg_excl_bad_scans = yes
# binavg_skipover = 0
# binavg_surface_bin = no, min = 0.000, max = 0.000, value = 0.000
# split_date = Jun 16 2012 20:13:07, 7.17
# split_in = D:\ACEX\binavg\MCTV017.cnv
# split_excl_bad_scans = yes
# file_type = ascii
*END*
       1494 168.786022     -0.456     86.656    18.2332   4.721331     86.000 1.1998e-01    18.2181    35.8879  1026.2740    25.8980          8 0.0000e+00
       1620 168.786385     -0.377     85.626    18.4293   4.743474     85.000 1.1138e-01    18.4143    35.9053  1026.2333    25.8621          7 0.0000e+00
       1663 168.786512     -0.281     84.560    18.5618   4.760594     84.000 1.0740e-01    18.5469    35.9352  1026.2180    25.8516          7 0.0000e+00
       1684 168.786570     -0.302     83.558    18.7037   4.775890     83.000 1.1521e-01    18.6889    35.9412  1026.1821    25.8202          8 0.0000e+00
       1703 168.786625     -0.457     82.563    18.9011   4.800343     82.000 1.2178e-01    18.8864    35.9760  1026.1537    25.7965          6 0.0000e+00
       1720 168.786675     -0.336     81.567    19.1240   4.826819     81.000 1.4842e-01    19.1093    36.0050  1026.1141    25.7614          7 0.0000e+00
       1733 168.786713     -0.639     80.753    19.2354   4.840936     80.000 1.7060e-01    19.2208    36.0270  1026.0985    25.7496          2 0.0000e+00
 -9.990e-29 -9.990e-29 -9.990e-29 -9.990e-29 -9.990e-29 -9.990e-29     79.000 -9.990e-29 -9.990e-29 -9.990e-29 -9.990e-29 -9.990e-29          0 -9.990e-29
 -9.990e-29 -9.990e-29 -9.990e-29 -9.990e-29 -9.990e-29 -9.990e-29     78.000 -9.990e-29 -9.990e-29 -9.990e-29 -9.990e-29 -9.990e-29          0 -9.990e-29
       1819 168.786960     -0.271     77.341    19.2723   4.843560     77.000 1.5674e-01    19.2583    36.0181  1026.0672    25.7330          6 0.0000e+00
       1839 168.787020     -0.257     76.467    19.3671   4.852878     76.000 1.6658e-01    19.3532    36.0142  1026.0357    25.7053          8 0.0000e+00
       1860 168.787082     -0.259     75.441    19.7320   4.895690     75.000 1.6260e-01    19.7181    36.0548  1025.9662    25.6408          8 0.0000e+00
       1873 168.787117     -0.588     74.590    20.0718   4.943516     74.000 1.5976e-01    20.0579    36.1577  1025.9511    25.6297          4 0.0000e+00
       1891 168.787170     -0.702     73.620    20.3727   4.976330     73.000 1.5305e-01    20.3588    36.1690  1025.8747    25.5579          5 0.0000e+00
       1913 168.787234     -0.561     72.531    20.6957   5.019976     72.000 1.4845e-01    20.6818    36.2488  1025.8434    25.5317          9 0.0000e+00
       1926 168.787271     -0.771     71.683    20.7975   5.030063     71.000 1.6705e-01    20.7838    36.2440  1025.8083    25.5004          5 0.0000e+00
       1963 168.787379     -0.068     70.392    20.9065   5.038588     70.000 1.7361e-01    20.8930    36.2206  1025.7551    25.4528          5 0.0000e+00
       1981 168.787432     -0.351     69.501    21.0754   5.060091     69.000 1.8557e-01    21.0620    36.2510  1025.7280    25.4297          5 0.0000e+00
       2010 168.787515     -0.302     68.440    21.1505   5.069326     68.000 1.9083e-01    21.1373    36.2619  1025.7110    25.4173          8 0.0000e+00
       2027 168.787564     -0.230     67.432    21.1698   5.069332     67.000 2.2407e-01    21.1567    36.2460  1025.6892    25.3999          6 0.0000e+00
       2050 168.787632     -0.439     66.438    21.2229   5.073477     66.000 2.6739e-01    21.2100    36.2346  1025.6615    25.3765          6 0.0000e+00
       2066 168.787677     -0.443     65.475    21.2709   5.080697     65.000 2.9680e-01    21.2582    36.2523  1025.6575    25.3767          8 0.0000e+00
       2088 168.787740     -0.358     64.400    21.2814   5.081543     64.000 3.0185e-01    21.2689    36.2505  1025.6486    25.3723          8 0.0000e+00
       2101 168.787779     -0.681     63.567    21.2423   5.072552     63.000 3.0856e-01    21.2299    36.2118  1025.6264    25.3537          5 0.0000e+00
       2126 168.787851     -0.271     62.407    21.1025   5.046039     62.000 2.9582e-01    21.0904    36.1173  1025.5879    25.3200          9 0.0000e+00
       2142 168.787897     -0.585     61.539    21.0042   5.025234     61.000 3.2587e-01    20.9923    36.0332  1025.5471    25.2828          6 0.0000e+00
       2170 168.787979     -0.130     60.249    20.9350   5.010297     60.000 3.5312e-01    20.9235    35.9715  1025.5135    25.2546          9 0.0000e+00
       2182 168.788013     -0.747     59.536    20.9476   5.008546     59.000 3.1578e-01    20.9362    35.9471  1025.4883    25.2325          3 0.0000e+00
       2203 168.788073     -0.615     58.514    21.0434   5.018283     58.000 3.0775e-01    21.0322    35.9451  1025.4561    25.2048          8 0.0000e+00
       2231 168.788155     -0.268     57.329    21.0811   5.021589     57.000 2.7793e-01    21.0701    35.9404  1025.4370    25.1908         11 0.0000e+00
       2255 168.788223     -0.408     56.292    21.0867   5.021018     56.000 2.9242e-01    21.0759    35.9314  1025.4242    25.1824          3 0.0000e+00
       2270 168.788267     -0.483     55.389    21.0745   5.017368     55.000 2.5841e-01    21.0639    35.9127  1025.4093    25.1714          9 0.0000e+00
       2295 168.788338     -0.345     54.304    21.0632   5.014571     54.000 2.6555e-01    21.0528    35.9000  1025.3981    25.1648          9 0.0000e+00
       2306 168.788372     -0.781     53.513    21.0525   5.012251     53.000 2.6027e-01    21.0422    35.8907  1025.3905    25.1606          5 0.0000e+00
       2333 168.788448     -0.469     52.459    21.0221   5.006876     52.000 2.5515e-01    21.0120    35.8733  1025.3810    25.1557          6 0.0000e+00
       2360 168.788526     -0.256     51.359    20.9404   4.991202     51.000 2.5164e-01    20.9306    35.8161  1025.3550    25.1343          4 0.0000e+00
       2390 168.788613     -0.155     50.261    20.8455   4.974221     50.000 2.4793e-01    20.8359    35.7591  1025.3328    25.1167          7 0.0000e+00
       2406 168.788662     -0.281     49.326    20.8082   4.967074     49.000 2.3286e-01    20.7988    35.7330  1025.3190    25.1069          8 0.0000e+00
       2427 168.788722     -0.386     48.371    20.8007   4.964694     48.000 1.8959e-01    20.7915    35.7204  1025.3073    25.0992          5 0.0000e+00
       2449 168.788784     -0.235     47.260    20.7650   4.956500     47.000 2.0239e-01    20.7561    35.6845  1025.2847    25.0815         11 0.0000e+00
       2472 168.788851     -0.374     46.193    20.6836   4.939481     46.000 2.1950e-01    20.6748    35.6155  1025.2496    25.0509          4 0.0000e+00
       2482 168.788879     -0.530     45.383    20.6656   4.936397     45.000 2.1231e-01    20.6570    35.6058  1025.2437    25.0483          7 0.0000e+00
       2503 168.788941     -0.350     44.310    20.6443   4.932468     44.000 2.6477e-01    20.6359    35.5922  1025.2344    25.0437          7 0.0000e+00
       2522 168.788995     -0.424     43.324    20.6428   4.931854     43.000 2.1733e-01    20.6346    35.5889  1025.2280    25.0415          9 0.0000e+00
       2547 168.789069     -0.033     42.069    20.6114   4.926951     42.000 1.6562e-01    20.6034    35.5759  1025.2211    25.0400          8 0.0000e+00
       2561 168.789109     -0.656     41.272    20.5586   4.915611     41.000 1.6866e-01    20.5509    35.5284  1025.1957    25.0179          3 0.0000e+00
       2575 168.789150     -0.646     40.355    20.4905   4.901682     40.000 1.7705e-01    20.4829    35.4726  1025.1675    24.9936          8 0.0000e+00
       2598 168.789217     -0.515     39.224    20.3874   4.883795     39.000 1.9242e-01    20.3801    35.4139  1025.1455    24.9765          4 0.0000e+00
       2609 168.789248     -0.567     38.402    20.3077   4.863995     38.000 1.9054e-01    20.3006    35.3195  1025.0913    24.9257          7 0.0000e+00
       2637 168.789328     -0.300     37.216    20.1196   4.827268     37.000 2.2945e-01    20.1127    35.1773  1025.0278    24.8672          6 0.0000e+00
       2655 168.789380     -0.325     36.238    20.0547   4.815156     36.000 2.0338e-01    20.0480    35.1327  1025.0068    24.8503          7 0.0000e+00
       2676 168.789440     -0.335     35.266    20.0284   4.809347     35.000 1.8712e-01    20.0219    35.1074  1024.9901    24.8379          7 0.0000e+00
       2696 168.789500     -0.424     34.308    20.0067   4.805027     34.000 1.7743e-01    20.0004    35.0905  1024.9788    24.8306          3 0.0000e+00
       2721 168.789571     -0.224     33.173    19.9685   4.797880     33.000 1.7964e-01    19.9624    35.0642  1024.9639    24.8206          2 0.0000e+00
       2738 168.789619     -0.325     32.258    19.9068   4.788017     32.000 2.0641e-01    19.9008    35.0350  1024.9538    24.8145          6 0.0000e+00
       2760 168.789685     -0.173     31.120    19.7118   4.750942     31.000 2.3356e-01    19.7061    34.8932  1024.8919    24.7573          9 0.0000e+00
       2776 168.789732     -0.485     30.205    19.6306   4.738273     30.000 3.1051e-01    19.6251    34.8566  1024.8812    24.7505          5 0.0000e+00
       2795 168.789785     -0.304     29.191    19.5699   4.727141     29.000 2.7164e-01    19.5646    34.8157  1024.8613    24.7350         10 0.0000e+00
       2816 168.789847     -0.341     28.089    19.5217   4.719197     28.000 2.9620e-01    19.5166    34.7906  1024.8498    24.7283          4 0.0000e+00
       2829 168.789883     -0.527     27.287    19.5137   4.716903     27.000 2.7925e-01    19.5088    34.7786  1024.8392    24.7212          9 0.0000e+00
       2853 168.789953     -0.297     26.166    19.5106   4.715216     26.000 2.9412e-01    19.5058    34.7676  1024.8268    24.7136          6 0.0000e+00
       2870 168.790003     -0.321     25.177    19.5134   4.714629     25.000 2.7262e-01    19.5089    34.7608  1024.8165    24.7075          7 0.0000e+00
       2891 168.790063     -0.311     24.148    19.5165   4.713511     24.000 2.6394e-01    19.5121    34.7493  1024.8025    24.6980          7 0.0000e+00
       2911 168.790122     -0.310     23.053    19.5267   4.714507     23.000 3.2247e-01    19.5225    34.7495  1024.7952    24.6954          6 0.0000e+00
       2922 168.790154     -0.527     22.269    19.5047   4.709071     22.000 2.8065e-01    19.5006    34.7231  1024.7773    24.6809          7 0.0000e+00
       2947 168.790227     -0.226     21.080    19.4347   4.697983     21.000 3.1740e-01    19.4309    34.6900  1024.7650    24.6737          6 0.0000e+00
       2963 168.790272     -0.294     20.123    19.3863   4.687081     20.000 3.1972e-01    19.3827    34.6403  1024.7353    24.6482          7 0.0000e+00
       2982 168.790329     -0.305     19.120    19.3523   4.682658     19.000 3.4093e-01    19.3489    34.6322  1024.7336    24.6508          7 0.0000e+00
       3000 168.790380     -0.396     18.130    19.3116   4.677046     18.000 4.0555e-01    19.3083    34.6199  1024.7303    24.6518          9 0.0000e+00
       3021 168.790439     -0.222     17.031    19.2455   4.666125     17.000 4.6792e-01    19.2425    34.5846  1024.7155    24.6417          6 0.0000e+00
       3056 168.790542     -0.437     16.186    19.2262   4.663135     16.000 4.7297e-01    19.2233    34.5761  1024.7103    24.6401          9 0.0000e+00
       3127 168.790746     -0.259     15.107    19.2162   4.662675     15.000 4.5276e-01    19.2135    34.5810  1024.7118    24.6463          5 0.0000e+00
       3146 168.790803     -0.077     13.927    18.7040   4.561989     14.000 8.7471e-01    18.7015    34.1645  1024.5182    24.4577          3 0.0000e+00
       3159 168.790838     -0.449     13.108    18.4697   4.482654     13.000 1.0920e+00    18.4675    33.6923  1024.2125    24.1555          6 0.0000e+00
       3177 168.790893     -0.583     12.142    18.2406   4.365309     12.000 1.1878e+00    18.2385    32.8904  1023.6517    23.5987          5 0.0000e+00
       3210 168.790987     -0.412     11.139    18.0829   4.321961     11.000 1.1275e+00    18.0811    32.6515  1023.5031    23.4545         11 0.0000e+00
       3271 168.791163     -0.433     10.114    18.0107   4.303594     10.000 1.0605e+00    18.0090    32.5544  1023.4419    23.3978          5 0.0000e+00
       3278 168.791185     -0.998      9.541    18.0073   4.302488      9.000 9.6872e-01    18.0057    32.5481  1023.4353    23.3937          1 0.0000e+00
       3324 168.791317     -0.225      8.007    18.0083   4.302613      8.000 1.0631e+00    18.0069    32.5488  1023.4290    23.3940          2 0.0000e+00
       3341 168.791366     -0.428      7.153    18.0077   4.302323      7.000 1.1231e+00    18.0065    32.5471  1023.4240    23.3928          5 0.0000e+00
       3374 168.791462     -0.226      6.004    18.0078   4.303049      6.000 1.1699e+00    18.0068    32.5536  1023.4239    23.3977          5 0.0000e+00
       3395 168.791521     -0.328      5.126    18.0072   4.303035      5.000 1.0991e+00    18.0064    32.5543  1023.4207    23.3983          4 0.0000e+00
       3424 168.791607     -0.230      4.003    18.0111   4.303385      4.000 1.1285e+00    18.0104    32.5545  1023.4150    23.3975          6 0.0000e+00
       3451 168.791685     -0.249      3.017    18.0354   4.305776      3.000 1.1606e+00    18.0349    32.5557  1023.4057    23.3925          5 0.0000e+00
       3469 168.791735     -0.588      2.252    18.0470   4.306056      2.000 1.1048e+00    18.0468    32.5491  1023.3943    23.3846          1 0.0000e+00
